"Cp,gas (J/mol*K)",Temperature (K)
35.7,100
42.3,200
52.49,298.15
52.71,300
65.46,400
77.94,500
89.19,600
99.14,700
107.94,800
115.71,900
122.55,1000
128.55,1100
133.8,1200
138.39,1300
142.4,1400
145.9,1500
148.98,1600
151.67,1700
154.04,1800
156.14,1900
158,2000
159.65,2100
161.12,2200
162.43,2300
163.61,2400
164.67,2500
165.63,2600
166.49,2700
167.28,2800
168,2900
168.65,3000
